500 bootstrap samples of the lab 1 data, difference in means (B-A)
  10 values per line

-0.604 -0.448 -0.406 -0.051 -0.024  0.027  0.152  0.193  0.221  0.270
 0.315  0.369  0.440  0.475  0.690  0.723  0.782  0.942  0.958  0.983
 0.984  1.001  1.017  1.034  1.062  1.084  1.100  1.131  1.179  1.213
 1.241  1.296  1.341  1.348  1.375  1.397  1.423  1.425  1.447  1.512
 1.531  1.569  1.575  1.623  1.630  1.635  1.682  1.696  1.715  1.715
 1.793  1.809  1.810  1.848  1.861  1.872  1.890  1.895  1.896  1.906
 1.918  1.925  1.937  1.945  2.002  2.033  2.087  2.095  2.122  2.126
 2.126  2.146  2.173  2.175  2.195  2.251  2.251  2.261  2.271  2.280
 2.329  2.341  2.356  2.389  2.412  2.416  2.429  2.457  2.466  2.466
 2.472  2.476  2.502  2.511  2.520  2.540  2.548  2.550  2.592  2.604
 2.621  2.656  2.657  2.666  2.680  2.680  2.687  2.726  2.738  2.749
 2.755  2.793  2.796  2.808  2.849  2.859  2.887  2.889  2.896  2.896
 2.906  2.916  2.956  2.957  2.959  2.959  2.974  2.984  2.991  3.068
 3.070  3.108  3.132  3.141  3.153  3.158  3.179  3.222  3.248  3.251
 3.252  3.264  3.270  3.283  3.292  3.293  3.294  3.304  3.339  3.369
 3.371  3.376  3.386  3.391  3.397  3.417  3.426  3.432  3.433  3.442
 3.452  3.455  3.457  3.504  3.523  3.526  3.544  3.544  3.568  3.569
 3.579  3.582  3.595  3.596  3.616  3.647  3.674  3.685  3.697  3.707
 3.727  3.728  3.736  3.741  3.767  3.791  3.801  3.802  3.824  3.828
 3.830  3.834  3.863  3.876  3.906  3.935  3.943  3.964  4.011  4.033
 4.038  4.040  4.044  4.051  4.091  4.097  4.114  4.120  4.132  4.144
 4.144  4.186  4.216  4.251  4.262  4.264  4.277  4.305  4.321  4.326
 4.328  4.331  4.334  4.337  4.387  4.413  4.420  4.428  4.437  4.438
 4.452  4.453  4.453  4.456  4.470  4.470  4.484  4.484  4.485  4.515
 4.526  4.556  4.574  4.577  4.577  4.578  4.601  4.615  4.618  4.626
 4.640  4.647  4.648  4.653  4.655  4.662  4.663  4.669  4.702  4.708
 4.720  4.721  4.722  4.728  4.746  4.758  4.762  4.812  4.813  4.828
 4.865  4.867  4.883  4.885  4.892  4.905  4.910  4.943  4.944  4.948
 4.958  4.973  5.009  5.011  5.061  5.086  5.119  5.128  5.134  5.147
 5.157  5.180  5.182  5.189  5.213  5.218  5.260  5.267  5.281  5.289
 5.292  5.293  5.305  5.343  5.353  5.357  5.359  5.397  5.413  5.422
 5.431  5.437  5.439  5.462  5.473  5.475  5.495  5.498  5.503  5.507
 5.516  5.518  5.554  5.561  5.562  5.567  5.631  5.652  5.653  5.661
 5.666  5.679  5.680  5.692  5.697  5.724  5.729  5.761  5.780  5.826
 5.829  5.847  5.848  5.887  5.890  5.897  5.901  5.904  5.918  5.925
 5.930  5.941  5.943  5.982  5.983  5.992  6.006  6.013  6.024  6.036
 6.067  6.072  6.092  6.098  6.114  6.118  6.131  6.145  6.160  6.174
 6.185  6.198  6.230  6.282  6.288  6.299  6.320  6.359  6.376  6.379
 6.397  6.400  6.404  6.453  6.459  6.521  6.540  6.567  6.586  6.595
 6.610  6.642  6.642  6.644  6.657  6.664  6.677  6.677  6.708  6.720
 6.740  6.844  6.885  6.886  6.897  6.901  6.929  6.929  6.953  6.988
 7.025  7.052  7.124  7.169  7.263  7.274  7.286  7.299  7.303  7.314
 7.325  7.354  7.363  7.397  7.403  7.411  7.418  7.421  7.445  7.460
 7.490  7.493  7.525  7.536  7.574  7.638  7.653  7.658  7.679  7.685
 7.748  7.763  7.788  7.799  7.804  7.908  7.914  7.917  7.937  7.966
 7.973  7.977  8.009  8.009  8.013  8.027  8.071  8.161  8.167  8.204
 8.215  8.258  8.258  8.280  8.304  8.342  8.483  8.581  8.597  8.597
 8.613  8.672  8.739  8.750  8.947  9.136  9.155  9.176  9.252  9.417
 9.508  9.567  9.616 10.022 10.149 10.181 10.202 10.257 10.264 10.266
10.426 10.432 10.515 10.897 10.985 11.119 11.347 11.553 11.576 11.887

500 randomizations of the lab 1 data, ratio of means (B/A)
  10 values per line

 0.762  0.775  0.817  0.973  0.987  1.014  1.076  1.115  1.142  1.145
 1.181  1.197  1.226  1.259  1.359  1.395  1.434  1.478  1.510  1.561
 1.579  1.579  1.602  1.606  1.618  1.621  1.677  1.708  1.733  1.757
 1.791  1.805  1.806  1.813  1.823  1.830  1.840  1.843  1.847  1.849
 1.861  1.862  1.875  1.882  1.884  1.915  1.923  1.935  1.964  1.964
 1.975  1.987  1.998  2.030  2.032  2.036  2.036  2.046  2.048  2.052
 2.052  2.088  2.118  2.169  2.177  2.189  2.211  2.213  2.214  2.218
 2.219  2.234  2.236  2.244  2.258  2.266  2.294  2.313  2.333  2.343
 2.344  2.345  2.360  2.367  2.369  2.395  2.398  2.430  2.435  2.458
 2.464  2.468  2.471  2.495  2.504  2.505  2.512  2.542  2.546  2.553
 2.568  2.580  2.586  2.620  2.630  2.660  2.661  2.666  2.691  2.694
 2.707  2.711  2.715  2.725  2.728  2.736  2.745  2.760  2.766  2.775
 2.795  2.802  2.809  2.812  2.816  2.822  2.868  2.876  2.891  2.911
 2.922  2.925  2.934  2.935  2.937  2.939  2.946  2.948  2.958  2.971
 2.972  2.975  2.988  2.991  2.994  2.994  2.998  3.018  3.028  3.030
 3.036  3.054  3.058  3.068  3.073  3.078  3.082  3.091  3.102  3.108
 3.114  3.124  3.172  3.192  3.214  3.215  3.217  3.220  3.224  3.248
 3.252  3.258  3.259  3.280  3.282  3.288  3.303  3.309  3.321  3.331
 3.331  3.333  3.343  3.351  3.355  3.357  3.379  3.384  3.389  3.395
 3.399  3.407  3.415  3.426  3.427  3.437  3.438  3.442  3.466  3.468
 3.499  3.501  3.511  3.528  3.536  3.542  3.583  3.589  3.589  3.596
 3.601  3.611  3.616  3.625  3.659  3.668  3.670  3.685  3.701  3.711
 3.712  3.722  3.726  3.735  3.745  3.750  3.759  3.762  3.767  3.790
 3.795  3.814  3.836  3.842  3.855  3.871  3.878  3.879  3.889  3.898
 3.937  3.939  3.967  3.994  3.997  4.000  4.010  4.019  4.023  4.031
 4.042  4.049  4.052  4.070  4.082  4.096  4.106  4.129  4.134  4.147
 4.172  4.185  4.201  4.207  4.208  4.216  4.219  4.220  4.223  4.238
 4.249  4.264  4.275  4.278  4.289  4.291  4.296  4.296  4.299  4.302
 4.319  4.339  4.340  4.357  4.381  4.394  4.396  4.401  4.407  4.427
 4.437  4.437  4.452  4.469  4.470  4.475  4.476  4.494  4.514  4.515
 4.521  4.525  4.543  4.545  4.552  4.562  4.565  4.570  4.571  4.575
 4.591  4.591  4.602  4.605  4.642  4.650  4.652  4.674  4.681  4.683
 4.714  4.716  4.735  4.742  4.765  4.772  4.777  4.818  4.822  4.827
 4.849  4.858  4.895  4.896  4.904  4.910  4.925  4.940  4.961  4.991
 5.050  5.055  5.069  5.072  5.077  5.099  5.101  5.108  5.135  5.136
 5.166  5.175  5.183  5.198  5.288  5.301  5.306  5.316  5.318  5.380
 5.406  5.468  5.471  5.477  5.504  5.540  5.546  5.547  5.547  5.551
 5.573  5.596  5.608  5.610  5.618  5.619  5.673  5.689  5.744  5.771
 5.804  5.824  5.824  5.825  5.839  5.846  5.857  5.862  5.880  5.884
 5.889  5.894  5.901  5.908  5.911  5.923  5.966  5.995  6.004  6.023
 6.037  6.077  6.083  6.157  6.178  6.181  6.192  6.201  6.205  6.216
 6.243  6.289  6.338  6.348  6.396  6.416  6.472  6.478  6.480  6.483
 6.527  6.532  6.539  6.563  6.592  6.627  6.653  6.679  6.710  6.756
 6.762  6.764  6.799  6.841  6.859  6.919  6.927  6.946  7.023  7.043
 7.050  7.057  7.058  7.166  7.184  7.197  7.219  7.236  7.247  7.266
 7.361  7.377  7.412  7.505  7.509  7.576  7.587  7.645  7.686  7.728
 7.847  7.921  7.983  8.024  8.027  8.066  8.083  8.103  8.136  8.200
 8.212  8.237  8.273  8.349  8.363  8.411  8.432  8.627  8.922  8.981
 9.095  9.103  9.132  9.197  9.320  9.424  9.494  9.495  9.552  9.645
 9.689  9.728  9.728  9.773  9.974 10.373 10.467 10.499 10.565 10.939
